 Zr Density=6.506 Thickness=0.1 microns
 Photon Energy (eV), Transmission
    10.000      0.77485E-06
    10.475      0.10204E-05
    10.950      0.13208E-05
    11.425      0.18308E-05
    11.900      0.26792E-05
    12.375      0.41996E-05
    12.850      0.69284E-05
    13.325      0.11011E-04
    13.800      0.20059E-04
    14.275      0.41636E-04
    14.750      0.80511E-04
    15.225      0.17894E-03
    15.700      0.45603E-03
    16.175      0.10258E-02
    16.650      0.20767E-02
    17.125      0.38456E-02
    17.600      0.66007E-02
    18.075      0.10619E-01
    18.550      0.16157E-01
    19.025      0.23434E-01
    19.500      0.32608E-01
    19.975      0.43767E-01
    20.450      0.56932E-01
    20.925      0.72058E-01
    21.400      0.89034E-01
    21.875      0.10758    
    22.350      0.12487    
    22.825      0.14073    
    23.300      0.15717    
    23.775      0.17409    
    24.250      0.19138    
    24.725      0.20896    
    25.200      0.22163    
    25.675      0.22903    
    26.150      0.22555    
    26.625      0.17676    
    27.100      0.50482E-01
    27.575      0.80281E-02
    28.050      0.43556E-02
    28.525      0.26107E-02
    29.000      0.17281E-02
    29.475      0.12607E-02
    29.950      0.91037E-03
    30.425      0.65062E-03
    30.900      0.46012E-03
    31.375      0.30622E-03
    31.850      0.16529E-03
    32.325      0.78633E-04
    32.800      0.35542E-04
    33.275      0.15223E-04
    33.750      0.61611E-05
    34.225      0.23495E-05
    34.700      0.10483E-05
    35.175      0.71885E-06
    35.650      0.67772E-06
    36.125      0.63929E-06
    36.600      0.61859E-06
    37.075      0.72291E-06
    37.550      0.85253E-06
    38.025      0.10017E-05
    38.500      0.11725E-05
    38.975      0.14251E-05
    39.450      0.18335E-05
    39.925      0.24262E-05
    40.400      0.31815E-05
    40.875      0.41352E-05
    41.350      0.54402E-05
    41.825      0.74332E-05
    42.300      0.11116E-04
    42.775      0.16327E-04
    43.250      0.23577E-04
    43.725      0.33503E-04
    44.200      0.46890E-04
    44.675      0.73033E-04
    45.150      0.11910E-03
    45.625      0.19885E-03
    46.100      0.32093E-03
    46.575      0.50195E-03
    47.050      0.76259E-03
    47.525      0.11278E-02
    48.000      0.16270E-02
    48.475      0.22936E-02
    48.950      0.31645E-02
    49.425      0.42802E-02
    49.900      0.56831E-02
    50.375      0.74167E-02
    50.850      0.95255E-02
    51.325      0.12053E-01
    51.800      0.15040E-01
    52.275      0.18526E-01
    52.750      0.22545E-01
    53.225      0.27128E-01
    53.700      0.32328E-01
    54.175      0.38308E-01
    54.650      0.45155E-01
    55.125      0.52956E-01
    55.600      0.61519E-01
    56.075      0.70840E-01
    56.550      0.80903E-01
    57.025      0.91687E-01
    57.500      0.10316    
    57.975      0.11530    
    58.450      0.12806    
    58.925      0.14139    
    59.400      0.15526    
    59.875      0.16960    
    60.350      0.18438    
    60.825      0.19953    
    61.300      0.21501    
    61.775      0.23077    
    62.250      0.24676    
    62.725      0.26291    
    63.200      0.27920    
    63.675      0.29558    
    64.150      0.31199    
    64.625      0.32841    
    65.100      0.34478    
    65.575      0.36109    
    66.050      0.37729    
    66.525      0.39336    
    67.000      0.40927    
    67.475      0.42499    
    67.950      0.44051    
    68.425      0.45580    
    68.900      0.47085    
    69.375      0.48141    
    69.850      0.49178    
    70.325      0.50150    
    70.800      0.51097    
    71.275      0.52029    
    71.750      0.52947    
    72.225      0.53849    
    72.700      0.54737    
    73.175      0.55609    
    73.650      0.56466    
    74.125      0.57309    
    74.600      0.58136    
    75.075      0.58948    
    75.550      0.59746    
    76.025      0.60528    
    76.500      0.61260    
    76.975      0.61850    
    77.450      0.62430    
    77.925      0.62916    
    78.400      0.63378    
    78.875      0.63833    
    79.350      0.64282    
    79.825      0.64724    
    80.300      0.65159    
    80.775      0.65588    
    81.250      0.65927    
    81.725      0.66158    
    82.200      0.66387    
    82.675      0.66609    
    83.150      0.66829    
    83.625      0.67046    
    84.100      0.67261    
    84.575      0.67474    
    85.050      0.67685    
    85.525      0.67894    
    86.000      0.68100    
    86.475      0.68304    
    86.950      0.68506    
    87.425      0.68707    
    87.900      0.68907    
    88.375      0.69105    
    88.850      0.69301    
    89.325      0.69495    
    89.800      0.69686    
    90.275      0.69876    
    90.750      0.70064    
    91.225      0.70250    
    91.700      0.70435    
    92.175      0.70617    
    92.650      0.70798    
    93.125      0.70977    
    93.600      0.71154    
    94.075      0.71325    
    94.550      0.71487    
    95.025      0.71647    
    95.500      0.71760    
    95.975      0.71802    
    96.450      0.71843    
    96.925      0.71883    
    97.400      0.71924    
    97.875      0.71964    
    98.350      0.72004    
    98.825      0.72044    
    99.300      0.72084    
    99.775      0.72123    
    100.25      0.72162    
    100.72      0.72201    
    101.20      0.72237    
    101.67      0.72263    
    102.15      0.72288    
    102.62      0.72310    
    103.10      0.72263    
    103.57      0.72216    
    104.05      0.72169    
    104.53      0.72123    
    105.00      0.72076    
    105.47      0.72030    
    105.95      0.71983    
    106.42      0.71937    
    106.90      0.71891    
    107.37      0.71845    
    107.85      0.71800    
    108.32      0.71754    
    108.80      0.71709    
    109.28      0.71664    
    109.75      0.71618    
    110.22      0.71573    
    110.70      0.71532    
    111.17      0.71493    
    111.65      0.71455    
    112.13      0.71418    
    112.60      0.71404    
    113.07      0.71390    
    113.55      0.71376    
    114.03      0.71362    
    114.50      0.71349    
    114.97      0.71335    
    115.45      0.71322    
    115.92      0.71308    
    116.40      0.71295    
    116.87      0.71281    
    117.35      0.71281    
    117.82      0.71301    
    118.30      0.71321    
    118.78      0.71341    
    119.25      0.71366    
    119.72      0.71393    
    120.20      0.71421    
    120.67      0.71448    
    121.15      0.71475    
    121.63      0.71502    
    122.10      0.71528    
    122.57      0.71555    
    123.05      0.71582    
    123.53      0.71608    
    124.00      0.71634    
    124.47      0.71660    
    124.95      0.71686    
    125.42      0.71712    
    125.90      0.71738    
    126.37      0.71764    
    126.85      0.71789    
    127.32      0.71815    
    127.80      0.71840    
    128.27      0.71865    
    128.75      0.71891    
    129.23      0.71916    
    129.70      0.71940    
    130.18      0.71965    
    130.65      0.71990    
    131.13      0.72014    
    131.60      0.72039    
    132.07      0.72063    
    132.55      0.72086    
    133.02      0.72109    
    133.50      0.72132    
    133.97      0.72154    
    134.45      0.72174    
    134.93      0.72194    
    135.40      0.72213    
    135.87      0.72233    
    136.35      0.72252    
    136.82      0.72272    
    137.30      0.72291    
    137.77      0.72310    
    138.25      0.72329    
    138.72      0.72349    
    139.20      0.72368    
    139.68      0.72386    
    140.15      0.72405    
    140.63      0.72424    
    141.10      0.72443    
    141.57      0.72462    
    142.05      0.72480    
    142.52      0.72499    
    143.00      0.72517    
    143.47      0.72536    
    143.95      0.72554    
    144.43      0.72572    
    144.90      0.72590    
    145.38      0.72608    
    145.85      0.72626    
    146.32      0.72644    
    146.80      0.72662    
    147.27      0.72680    
    147.75      0.72698    
    148.22      0.72715    
    148.70      0.72733    
    149.18      0.72751    
    149.65      0.72768    
    150.12      0.72786    
    150.60      0.72803    
    151.07      0.72820    
    151.55      0.72837    
    152.02      0.72855    
    152.50      0.72872    
    152.97      0.72891    
    153.45      0.72914    
    153.93      0.72937    
    154.40      0.72959    
    154.88      0.72982    
    155.35      0.73008    
    155.82      0.73035    
    156.30      0.73062    
    156.77      0.73089    
    157.25      0.73116    
    157.72      0.73143    
    158.20      0.73169    
    158.68      0.73196    
    159.15      0.73222    
    159.62      0.73249    
    160.10      0.73275    
    160.57      0.73301    
    161.05      0.73328    
    161.52      0.73354    
    162.00      0.73380    
    162.47      0.73405    
    162.95      0.73431    
    163.43      0.73457    
    163.90      0.73482    
    164.38      0.73508    
    164.85      0.73533    
    165.32      0.73558    
    165.80      0.73584    
    166.27      0.73609    
    166.75      0.73634    
    167.22      0.73659    
    167.70      0.73683    
    168.18      0.73708    
    168.65      0.73733    
    169.12      0.73757    
    169.60      0.73782    
    170.07      0.73806    
    170.55      0.73830    
    171.02      0.73855    
    171.50      0.73879    
    171.97      0.73903    
    172.45      0.73927    
    172.93      0.73951    
    173.40      0.73974    
    173.88      0.73998    
    174.35      0.74022    
    174.82      0.74045    
    175.30      0.74069    
    175.77      0.74092    
    176.25      0.74115    
    176.72      0.73383    
    177.20      0.72557    
    177.68      0.71714    
    178.15      0.70853    
    178.62      0.69973    
    179.10      0.69691    
    179.57      0.69694    
    180.05      0.69696    
    180.52      0.69698    
    181.00      0.69700    
    181.47      0.69703    
    181.95      0.69705    
    182.43      0.69707    
    182.90      0.69709    
    183.37      0.69711    
    183.85      0.69714    
    184.32      0.69527    
    184.80      0.69071    
    185.27      0.68611    
    185.75      0.68147    
    186.22      0.67679    
    186.70      0.67208    
    187.18      0.66683    
    187.65      0.66128    
    188.13      0.65568    
    188.60      0.65003    
    189.07      0.64433    
    189.55      0.63857    
    190.02      0.63333    
    190.50      0.62818    
    190.97      0.62300    
    191.45      0.61778    
    191.93      0.61253    
    192.40      0.60724    
    192.87      0.60376    
    193.35      0.60053    
    193.82      0.59729    
    194.30      0.59404    
    194.77      0.59078    
    195.25      0.58751    
    195.72      0.58424    
    196.20      0.58095    
    196.68      0.57766    
    197.15      0.57436    
    197.63      0.57106    
    198.10      0.56774    
    198.57      0.55972    
    199.05      0.55004    
    199.52      0.54028    
    200.00      0.53042    
